# units Angstrom
# wavelengths in IN VACUUM
# line list created from the ATRAN model with params WV=2mm, AM=1.5, R=15000
# to use for GNIRS XJHK-band observations, R > 10000)
# with weights
10774.86 0.962
10802.53 0.947
10813.76 0.966
10835.06 0.936
10836.94 0.977
10860.29 0.945
10862.96 0.866
10871.07 0.973
10891.78 0.963
10895.18 0.963
10903.98 0.901
10906.67 0.968
10925.94 0.847
10933.84 0.974
10938.14 0.970
10947.41 0.966
10949.33 0.909
10957.54 0.971
10962.85 0.940
10975.98 0.953
10978.94 0.922
10981.76 0.971
10985.39 0.967
10988.86 0.938
10991.28 0.958
10995.04 0.969
10996.93 0.823
10999.46 0.919
11002.53 0.973
11005.62 0.929
11016.99 0.968
11030.64 0.856
11032.96 0.941
11035.42 0.935
11041.97 0.864
11044.40 0.814
11055.65 0.868
11060.88 0.915
11063.01 0.824
11067.15 0.834
11072.22 0.974
11077.65 0.919
11085.07 0.821
11087.70 0.771
11093.68 0.882
11095.31 0.963
11102.00 0.970
11105.90 0.620
11109.07 0.762
11112.46 0.749
11115.12 0.576
11123.71 0.832
11130.00 0.552
11139.18 0.622
11142.58 0.893
11146.40 0.930
11148.10 0.848
11154.99 0.556
11158.40 0.770
11160.37 0.819
11172.82 0.338
11175.07 0.299
11180.67 0.793
11183.79 0.229
11200.11 0.348
11204.05 0.110
11208.03 0.757
11213.71 0.183
11224.30 0.059
11227.92 0.096
11249.01 0.849
11251.41 0.562
11268.22 0.507
11274.10 0.194
11278.83 0.074
11285.23 0.184
11289.92 0.210
11293.17 0.426
11297.50 0.065
11301.92 0.258
11304.70 0.825
11308.53 0.761
11315.52 0.528
11321.10 0.749
11324.74 0.280
11328.19 0.907
11330.03 0.741
11332.74 0.277
11341.14 0.160
11356.96 0.889
11364.30 0.866
11365.92 0.904
11368.29 0.861
11372.21 0.963
11376.74 0.275
11380.88 0.926
11385.36 0.138
11391.28 0.970
11403.60 0.957
11408.96 0.132
11415.33 0.232
11418.75 0.911
11422.13 0.331
11426.35 0.858
11429.01 0.737
11430.94 0.887
11437.82 0.271
11443.58 0.064
11449.76 0.213
11454.58 0.195
11459.39 0.292
11463.22 0.663
11466.80 0.111
11470.64 0.279
11473.31 0.383
11476.22 0.217
11484.21 0.956
11488.61 0.185
11498.22 0.150
11504.83 0.884
11508.54 0.393
11513.22 0.352
11520.40 0.236
11540.50 0.370
11543.10 0.722
11544.67 0.489
11549.90 0.582
11554.24 0.712
11557.76 0.238
11562.32 0.958
11568.59 0.940
11572.27 0.710
11574.48 0.839
11578.37 0.385
11585.01 0.801
11589.82 0.378
11595.30 0.909
11597.23 0.687
11601.17 0.813
11612.53 0.884
11614.64 0.782
11617.02 0.897
11623.39 0.587
11625.22 0.909
11633.58 0.971
11636.08 0.863
11638.24 0.807
11641.30 0.956
11643.73 0.972
11646.99 0.975
11660.69 0.902
11664.98 0.955
11667.54 0.789
11671.92 0.887
11679.49 0.955
11684.00 0.849
11688.32 0.957
11695.04 0.897
11705.73 0.913
11710.62 0.839
11718.86 0.922
11723.58 0.807
11729.01 0.915
11730.91 0.951
11736.37 0.888
11749.25 0.973
11754.38 0.848
11766.62 0.966
11775.95 0.787
11777.54 0.735
11784.05 0.808
11795.73 0.736
11798.08 0.881
11809.10 0.949
11813.39 0.882
11815.95 0.969
11818.56 0.522
11821.95 0.682
11836.32 0.964
11838.64 0.943
11843.26 0.686
11847.94 0.852
11850.50 0.763
11859.44 0.952
11865.06 0.911
11868.98 0.919
11876.72 0.658
11879.54 0.966
11881.95 0.695
11892.32 0.820
11902.86 0.872
11906.42 0.971
11908.32 0.919
11910.00 0.958
11913.23 0.967
11918.62 0.897
11927.95 0.968
11934.86 0.761
11936.78 0.958
11951.04 0.902
11955.98 0.920
11963.50 0.917
11969.57 0.973
11976.02 0.793
11985.15 0.942
11987.98 0.793
11990.03 0.920
11992.00 0.850
11997.26 0.928
12001.65 0.919
12004.64 0.953
12008.56 0.885
12013.46 0.920
12018.53 0.795
12026.35 0.948
12030.59 0.963
12033.44 0.934
12046.32 0.971
12048.02 0.973
12050.67 0.751
12061.68 0.986
12065.17 0.905
12070.51 0.918
12074.45 0.895
12078.45 0.970
12081.58 0.855
12088.34 0.977
12091.58 0.798
12099.73 0.855
12113.63 0.814
12119.31 0.946
12130.61 0.971
12138.98 0.967
12141.44 0.933
12144.05 0.950
12145.97 0.970
12149.17 0.912
12151.90 0.976
12154.66 0.923
12168.58 0.919
12179.46 0.954
12181.33 0.967
12186.64 0.982
12189.10 0.960
12193.63 0.949
12196.91 0.981
12198.86 0.965
12200.78 0.987
12203.31 0.940
12217.82 0.915
12221.89 0.979
12226.38 0.922
12231.07 0.964
12236.03 0.960
12237.66 0.947
12242.83 0.974
12244.91 0.973
12254.29 0.962
12260.72 0.977
12267.07 0.975
12270.50 0.923
12295.34 0.962
12496.10 0.977
12511.10 0.961
12526.45 0.935
12542.11 0.902
12558.08 0.870
12574.38 0.837
12591.01 0.808
12595.78 0.978
12598.38 0.964
12601.82 0.959
12604.72 0.937
12607.98 0.737
12611.34 0.902
12614.70 0.895
12618.24 0.862
12621.58 0.852
12625.30 0.643
12628.74 0.810
12632.88 0.790
12636.16 0.772
12640.61 0.761
12648.61 0.749
12651.84 0.718
12656.90 0.751
12665.47 0.774
12668.61 0.711
12674.38 0.849
12677.39 0.720
12687.38 0.469
12690.75 0.637
12692.32 0.736
12696.26 0.833
12698.61 0.878
12704.24 0.961
12707.04 0.809
12710.27 0.859
12717.07 0.795
12720.27 0.826
12725.36 0.944
12727.38 0.795
12730.53 0.821
12737.95 0.813
12741.07 0.833
12744.64 0.914
12748.78 0.840
12751.87 0.856
12759.89 0.872
12762.94 0.885
12771.22 0.901
12774.29 0.916
12784.08 0.906
12785.90 0.947
12794.80 0.966
12797.78 0.968
12804.27 0.919
12807.01 0.983
12824.75 0.938
12866.66 0.972
12888.98 0.962
12917.46 0.955
12955.14 0.970
12957.14 0.962
12973.15 0.913
12979.46 0.975
12994.77 0.919
12997.54 0.928
13004.43 0.899
13006.70 0.952
13010.70 0.890
13023.15 0.956
13028.22 0.911
13034.93 0.793
13040.38 0.909
13042.77 0.785
13044.54 0.925
13055.66 0.921
13066.53 0.715
13068.83 0.943
13071.66 0.904
13081.15 0.680
13096.78 0.670
13099.63 0.845
13105.31 0.710
13109.17 0.972
13110.70 0.964
13122.86 0.770
13124.94 0.959
13129.70 0.796
13132.70 0.920
13136.99 0.477
13140.22 0.967
13142.64 0.886
13145.47 0.904
13149.23 0.854
13153.82 0.876
13156.56 0.802
13158.61 0.963
13162.18 0.963
13169.78 0.594
13172.66 0.972
13183.23 0.692
13185.70 0.936
13188.27 0.698
13201.22 0.468
13203.94 0.725
13210.50 0.922
13214.27 0.599
13217.98 0.885
13221.47 0.892
13225.31 0.849
13229.38 0.689
13232.16 0.644
13237.30 0.973
13240.74 0.622
13243.07 0.811
13253.44 0.800
13255.84 0.685
13259.09 0.896
13263.36 0.883
13269.58 0.757
13274.83 0.922
13278.54 0.709
13288.24 0.491
13292.27 0.509
13295.36 0.956
13296.75 0.943
13306.83 0.828
13308.94 0.666
13313.28 0.409
13324.74 0.223
13327.34 0.859
13330.75 0.791
13341.22 0.627
13349.31 0.504
13354.34 0.909
13359.87 0.219
13366.56 0.941
13369.65 0.736
13371.38 0.608
13374.86 0.349
13377.52 0.900
13380.11 0.367
13387.70 0.582
13392.90 0.424
13409.23 0.944
13413.44 0.549
13416.19 0.421
13421.15 0.894
13424.18 0.933
13427.23 0.467
13429.42 0.907
13430.69 0.922
13438.50 0.471
13440.75 0.211
13444.48 0.464
13446.08 0.296
13456.35 0.377
13459.46 0.421
13462.62 0.780
13468.56 0.764
13472.45 0.579
13492.77 0.321
13496.10 0.769
13499.30 0.212
13506.90 0.198
13509.90 0.447
13517.97 0.035
13524.99 0.005
13527.54 0.531
13531.44 0.000
13536.80 0.020
13558.18 0.000
13574.94 0.018
13577.70 0.001
13584.26 0.000
13669.10 0.001
13692.58 0.023
13700.00 0.000
14906.21 0.967
14909.26 0.959
14925.18 0.848
14932.79 0.875
14943.98 0.865
14949.44 0.688
14953.65 0.869
14957.95 0.621
14965.41 0.499
14976.04 0.875
14985.65 0.915
14991.46 0.848
14997.21 0.829
15007.30 0.928
15018.55 0.783
15027.50 0.770
15031.78 0.894
15035.70 0.867
15043.88 0.822
15047.70 0.720
15052.02 0.941
15058.16 0.933
15072.57 0.898
15082.84 0.840
15090.89 0.812
15102.29 0.927
15109.86 0.947
15112.36 0.975
15123.96 0.897
15128.81 0.926
15131.64 0.962
15135.13 0.963
15137.78 0.904
15148.50 0.924
15162.83 0.890
15168.22 0.912
15172.50 0.972
15176.05 0.892
15183.75 0.955
15191.82 0.937
15204.35 0.953
15218.63 0.961
15245.58 0.964
15258.00 0.968
15267.73 0.961
15273.79 0.960
15287.50 0.971
15313.62 0.964
15328.49 0.987
15331.60 0.984
15334.72 0.981
15337.88 0.978
15344.35 0.973
15347.64 0.972
15351.04 0.966
15354.33 0.971
15357.75 0.968
15364.72 0.979
15371.72 0.977
15384.77 0.987
15388.56 0.982
15396.29 0.975
15400.21 0.974
15404.16 0.973
15408.17 0.972
15412.23 0.975
15416.33 0.975
15424.62 0.983
15428.88 0.983
15433.09 0.988
15683.39 0.986
15685.65 0.984
15687.80 0.979
15690.10 0.971
15692.45 0.956
15694.95 0.944
15697.47 0.932
15700.04 0.917
15702.69 0.900
15705.44 0.878
15708.24 0.861
15711.12 0.844
15714.06 0.829
15717.08 0.814
15720.18 0.806
15723.36 0.798
15726.60 0.796
15729.91 0.798
15733.31 0.805
15736.78 0.820
15740.33 0.842
15743.97 0.872
15747.68 0.915
15751.43 0.968
15757.24 0.940
15761.21 0.894
15765.27 0.856
15769.39 0.836
15773.60 0.822
15777.86 0.814
15782.22 0.811
15786.65 0.813
15791.15 0.821
15795.74 0.831
15800.39 0.847
15805.12 0.862
15809.93 0.879
15814.82 0.896
15819.77 0.913
15824.80 0.928
15829.89 0.942
15835.08 0.957
15840.33 0.967
15845.63 0.976
15851.03 0.983
15856.49 0.988
15983.55 0.987
15988.02 0.978
15990.42 0.968
15992.96 0.956
15995.50 0.947
15998.14 0.933
16000.83 0.915
16003.64 0.893
16006.51 0.877
16009.48 0.861
16012.50 0.842
16015.60 0.824
16018.78 0.811
16022.02 0.799
16025.38 0.794
16028.78 0.790
16032.26 0.791
16035.82 0.800
16039.46 0.813
16043.17 0.837
16046.94 0.870
16050.80 0.911
16054.77 0.967
16060.76 0.938
16064.90 0.891
16069.09 0.857
16073.35 0.835
16077.69 0.818
16082.10 0.808
16086.62 0.806
16091.16 0.809
16095.83 0.813
16100.52 0.827
16105.32 0.837
16110.19 0.855
16115.15 0.873
16120.17 0.890
16125.28 0.907
16130.48 0.924
16135.75 0.939
16141.10 0.954
16146.54 0.964
16152.00 0.974
16157.68 0.979
16163.25 0.986
16169.02 0.985
16305.09 0.979
16354.31 0.929
16366.77 0.986
16376.92 0.914
16400.44 0.981
16403.49 0.869
16407.98 0.974
16411.80 0.971
16415.66 0.968
16419.56 0.966
16423.49 0.964
16429.17 0.815
16435.51 0.967
16439.57 0.970
16443.67 0.975
16447.79 0.980
16451.98 0.983
16455.49 0.744
16466.74 0.986
16471.04 0.980
16475.36 0.974
16482.29 0.820
16488.59 0.968
16492.97 0.963
16497.45 0.968
16501.99 0.973
16506.57 0.974
16509.56 0.782
16515.70 0.977
16520.30 0.971
16537.26 0.810
16565.46 0.903
16594.13 0.950
16623.30 0.946
16659.58 0.815
16661.99 0.864
16664.73 0.899
16667.98 0.918
16671.34 0.952
16673.79 0.982
16713.49 0.960
16744.48 0.896
16776.00 0.871
16807.91 0.899
16840.29 0.839
16873.14 0.902
16915.43 0.971
16996.06 0.975
17009.39 0.936
17027.69 0.970
17035.25 0.967
17056.20 0.980
17061.40 0.971
17076.01 0.955
17081.29 0.968
17086.14 0.876
17092.63 0.988
17106.56 0.962
17143.10 0.848
17146.21 0.941
17153.04 0.974
17161.22 0.878
17170.08 0.986
17200.48 0.984
17212.43 0.814
17214.56 0.835
17226.64 0.976
17235.64 0.814
17243.20 0.912
17245.59 0.896
17248.77 0.934
17254.54 0.985
17262.13 0.925
17270.18 0.967
17285.34 0.935
17289.07 0.895
17306.42 0.984
17309.07 0.974
17320.15 0.750
17323.87 0.652
17343.02 0.985
17347.61 0.987
17350.37 0.983
17356.42 0.842
17361.12 0.839
17379.15 0.984
17398.23 0.798
17412.79 0.585
17416.56 0.903
17444.46 0.658
17467.38 0.491
17470.96 0.614
17475.00 0.817
17515.44 0.510
17527.66 0.960
17551.61 0.511
17555.60 0.971
17568.19 0.618
17574.59 0.543
17610.39 0.632
17624.87 0.729
17630.66 0.674
17659.37 0.100
17671.87 0.968
17682.55 0.929
17691.13 0.935
17694.90 0.953
17697.71 0.781
17707.25 0.539
17721.48 0.982
17725.36 0.954
17730.78 0.969
17740.13 0.515
17744.01 0.628
17747.45 0.962
17750.11 0.921
17755.19 0.954
17757.80 0.883
17762.39 0.368
17765.68 0.906
17770.77 0.937
17775.64 0.976
17778.86 0.903
17783.86 0.681
17788.29 0.229
17791.08 0.801
17798.14 0.939
17812.59 0.185
17825.78 0.929
17833.30 0.908
17842.73 0.688
17848.04 0.066
17859.73 0.426
17865.17 0.870
17871.33 0.311
17875.19 0.867
17878.31 0.968
17888.37 0.548
17904.41 0.536
17927.44 0.418
17934.74 0.224
17939.26 0.176
17945.44 0.871
17948.08 0.884
17952.73 0.251
17960.58 0.471
17963.23 0.606
17975.58 0.928
17981.26 0.218
17999.99 0.215
19106.13 0.002
19181.81 0.710
19260.66 0.192
19319.35 0.052
19340.36 0.006
19365.94 0.009
19373.36 0.333
19391.40 0.009
19404.25 0.741
19409.73 0.111
19429.09 0.607
19444.81 0.323
19481.95 0.188
19513.10 0.532
19521.99 0.293
19572.33 0.085
19583.24 0.143
19588.75 0.188
19600.34 0.337
19609.96 0.209
19615.21 0.422
19621.17 0.224
19627.65 0.086
19633.66 0.106
19640.14 0.205
19646.63 0.185
19653.29 0.147
19659.89 0.159
19666.51 0.224
19673.32 0.240
19680.13 0.171
19687.17 0.292
19701.39 0.364
19715.82 0.222
19730.75 0.548
19734.83 0.890
19758.97 0.714
19769.30 0.835
19775.40 0.852
19830.66 0.755
19844.30 0.968
19852.28 0.672
19879.62 0.953
19898.25 0.825
19901.83 0.464
19907.31 0.677
19919.46 0.953
19941.87 0.595
19947.21 0.888
19956.65 0.657
19975.48 0.621
19986.19 0.401
19990.12 0.349
19994.02 0.311
19998.07 0.249
20002.26 0.206
20006.63 0.158
20015.58 0.107
20020.25 0.081
20025.06 0.067
20035.03 0.048
20040.22 0.042
20045.47 0.037
20050.87 0.036
20062.13 0.036
20067.88 0.054
20073.72 0.074
20079.70 0.112
20085.95 0.298
20095.37 0.183
20101.82 0.087
20108.51 0.060
20115.11 0.060
20121.91 0.045
20128.90 0.044
20143.15 0.051
20150.46 0.050
20157.97 0.056
20165.50 0.076
20173.13 0.077
20180.99 0.103
20189.03 0.120
20197.04 0.161
20205.16 0.203
20213.43 0.232
20222.06 0.278
20230.54 0.370
20235.73 0.831
20239.13 0.405
20243.74 0.866
20248.05 0.513
20256.99 0.588
20266.09 0.656
20281.66 0.820
20284.66 0.775
20287.41 0.848
20327.86 0.952
20337.69 0.944
20340.24 0.936
20342.94 0.932
20348.07 0.936
20356.23 0.930
20364.74 0.923
20369.63 0.922
20374.01 0.914
20378.85 0.901
20383.74 0.861
20388.70 0.876
20393.81 0.859
20409.79 0.815
20415.39 0.824
20420.97 0.823
20426.78 0.810
20432.88 0.823
20438.77 0.861
20451.06 0.873
20454.91 0.912
20464.32 0.877
20473.77 0.720
20478.61 0.732
20483.59 0.671
20488.46 0.553
20498.99 0.509
20504.30 0.449
20509.61 0.370
20520.70 0.334
20526.33 0.300
20532.02 0.264
20537.83 0.248
20543.70 0.232
20549.62 0.223
20555.64 0.212
20561.77 0.215
20574.18 0.239
20580.45 0.260
20586.88 0.317
20593.33 0.408
20599.87 0.619
20604.62 0.903
20616.53 0.363
20623.31 0.294
20630.17 0.259
20637.13 0.244
20644.14 0.237
20651.21 0.236
20658.39 0.242
20665.61 0.254
20672.94 0.271
20680.33 0.290
20687.78 0.317
20695.32 0.353
20702.98 0.381
20710.63 0.418
20718.47 0.483
20726.39 0.493
20750.53 0.610
20761.50 0.905
20763.87 0.895
20767.13 0.754
20770.36 0.904
20783.65 0.836
20792.59 0.911
20806.53 0.960
20809.96 0.934
20813.77 0.946
20820.46 0.918
20824.24 0.926
20831.49 0.903
20834.66 0.895
20838.62 0.910
20841.73 0.899
20853.43 0.909
20856.13 0.896
20916.44 0.941
20928.87 0.978
20932.69 0.944
20938.97 0.891
20954.60 0.977
20958.18 0.976
20979.15 0.979
20988.01 0.878
20998.01 0.972
21010.89 0.971
21024.06 0.972
21030.66 0.976
21037.32 0.978
21044.07 0.982
21089.30 0.969
21103.76 0.964
21110.80 0.968
21118.28 0.906
21125.50 0.957
21133.06 0.977
21140.57 0.980
21148.11 0.981
21178.50 0.982
21185.78 0.858
21197.74 0.968
21200.82 0.974
21210.30 0.987
21244.53 0.928
21277.74 0.851
21358.67 0.965
21489.17 0.983
21499.14 0.974
21513.69 0.912
21517.57 0.950
21524.28 0.971
21529.59 0.949
21535.28 0.970
21542.29 0.968
21591.02 0.934
21599.82 0.967
21656.58 0.984
21667.87 0.951
21671.10 0.951
21679.07 0.983
21686.88 0.860
21703.33 0.975
21726.01 0.903
21745.22 0.920
21750.03 0.985
21792.95 0.923
21833.69 0.801
21840.55 0.914
21849.41 0.795
21871.06 0.959
21877.34 0.953
21882.41 0.941
21896.23 0.948
21905.23 0.928
21946.42 0.921
21966.78 0.973
22030.25 0.965
22040.37 0.947
22049.00 0.828
22059.09 0.974
22067.71 0.957
22159.85 0.909
22187.48 0.985
22219.48 0.935
22237.41 0.985
22247.53 0.975
22252.10 0.956
22266.27 0.888
22272.02 0.890
22303.46 0.986
22307.42 0.980
22310.15 0.982
22316.14 0.846
22331.13 0.977
22336.61 0.897
22343.24 0.978
22346.44 0.973
22351.83 0.960
22397.30 0.957
22403.02 0.906
22424.26 0.954
22429.13 0.953
22440.19 0.895
22443.12 0.905
22451.80 0.981
22465.18 0.950
22468.58 0.938
22479.79 0.981
22491.61 0.965
22497.33 0.928
22502.31 0.940
22505.69 0.911
22509.68 0.959
22516.01 0.977
22530.39 0.946
22533.35 0.947
22536.55 0.919
22540.65 0.797
22546.99 0.965
22559.84 0.872
22566.91 0.848
22579.26 0.940
22584.57 0.893
22588.58 0.979
22592.02 0.975
22595.39 0.971
22617.27 0.742
22637.78 0.860
22643.26 0.937
22662.36 0.985
22682.39 0.810
22686.47 0.705
22694.10 0.974
22709.91 0.979
22724.57 0.767
22731.91 0.982
22735.84 0.906
22743.38 0.983
22747.92 0.860
22765.14 0.801
22772.24 0.776
22781.80 0.922
22788.20 0.957
22808.29 0.660
22815.77 0.931
22839.91 0.655
22849.97 0.931
22853.67 0.699
22866.75 0.926
22877.17 0.914
22883.06 0.946
22894.53 0.712
22916.21 0.923
22930.11 0.971
22974.05 0.986
22994.12 0.759
23001.95 0.796
23007.43 0.794
23017.79 0.942
23044.28 0.708
23049.35 0.864
23054.78 0.810
23060.47 0.896
23065.78 0.837
23080.47 0.939
23083.64 0.953
23094.11 0.878
23099.98 0.918
23121.75 0.851
23191.82 0.878
23195.78 0.818
23199.04 0.863
23214.76 0.917
23219.46 0.753
23238.64 0.862
23285.37 0.581
23290.56 0.917
23293.23 0.893
23301.82 0.971
23308.81 0.858
23336.47 0.947
23339.84 0.821
23344.68 0.919
23374.13 0.944
23382.64 0.800
23403.70 0.644
23420.48 0.755
23425.02 0.880
23454.09 0.857
23464.89 0.835
23467.85 0.696
23481.23 0.688
23484.69 0.765
23492.96 0.771
23497.65 0.766
23504.22 0.609
23516.49 0.659
23540.83 0.976
23546.46 0.899
23568.87 0.916
23572.75 0.804
23616.28 0.569
23633.58 0.956
23645.17 0.759
23651.59 0.959
23655.20 0.976
23662.36 0.729
23672.36 0.715
23689.55 0.699
23713.81 0.426
23721.32 0.745
23724.58 0.743
23753.35 0.857
23782.13 0.321
23801.61 0.794
23804.83 0.706
23808.29 0.885
23822.05 0.960
23840.24 0.297
23854.43 0.944
23859.77 0.431
23881.51 0.353
23893.54 0.967
23901.54 0.765
23915.10 0.212
23924.60 0.933
23948.21 0.869
23951.06 0.903
23955.14 0.848
23967.37 0.298
23973.38 0.626
23989.54 0.896
24003.74 0.565
24017.91 0.919
24028.35 0.974
24032.40 0.872
24051.73 0.941
24056.42 0.839
24061.03 0.771
24069.77 0.337
24076.99 0.507
24090.48 0.927
24117.61 0.527
24123.07 0.870
24128.20 0.962
24137.56 0.734
24143.34 0.290
24173.17 0.938
24185.64 0.138
24191.50 0.109
24206.85 0.970
24251.17 0.803
24263.78 0.279
24276.60 0.928
24289.59 0.968
24294.32 0.960
24302.15 0.948
24327.90 0.859
24333.51 0.265
24354.30 0.008
24361.96 0.070
24375.98 0.944
24379.24 0.956
24388.04 0.960
24396.28 0.976
24410.21 0.976
24415.41 0.974
24428.75 0.622
24444.71 0.946
24460.99 0.014
24472.75 0.123
24480.64 0.310
24513.44 0.019
24537.99 0.361
24546.79 0.081
24566.35 0.889
24581.67 0.970
24593.52 0.892
24612.85 0.930
24644.18 0.432
24660.81 0.902
24678.09 0.210
24686.15 0.862
24752.47 0.714
24756.99 0.784
24761.48 0.948
24765.09 0.956
24774.42 0.665
24785.97 0.518
24791.17 0.823
24797.71 0.419
24805.27 0.063
24815.25 0.040
24842.56 0.001
24861.80 0.746
24868.93 0.160
24878.84 0.002
