# units Angstrom
# wavelengths in IN VACUUM
# line list created from the ATRAN model with params WV=2mm, AM=1.5, R=13000
# to use for GNIRS L-band observations, R >= 10000
28112.4
28246.5
28252.9
28257.3
28277.6
28292.8
28303.8
28399.0
28417.2
28429.6
28438.2
28457.2
28465.2
28516.9
28558.2
28573.0
28582.3
28599.0
28610.9
28625.2
28653.1
28668.3
28682.3
28688.3
28694.1
28701.7
28717.1
28757.4
28777.2
28790.7
28803.3
28815.2
28830.5
28843.5
28850.8
28879.4
28890.1
28897.9
28912.6
28921.8
28947.4
28958.9
28975.7
28984.5
29009.7
29026.1
29068.4
29084.8
29100.2
29122.2
29130.5
29145.7
29172.2
29204.9
29253.0
29263.8
29299.2
29335.4
29354.1
29380.4
29393.8
29422.1
29435.9
29536.1
29547.4
29558.9
29581.7
29593.6
29599.4
29607.3
29614.9
29624.3
29632.4
29664.3
29675.3
29694.7
29711.2
29723.7
29736.0
29747.0
29760.4
29766.1
29788.2
29800.0
29810.8
29818.2
29839.5
29851.9
29886.1
29913.4
29919.6
29927.7
29937.9
29969.0
29988.3
30033.2
30053.1
30062.3
30084.1
30093.1
30116.2
30134.0
30145.1
30181.7
30192.7
30206.7
30273.4
30326.0
30338.7
30356.4
30382.6
30391.9
30430.6
30448.8
30452.8
30460.1
30487.1
30496.2
30521.2
30532.7
30563.3
30571.5
30577.0
30627.0
30644.1
30651.1
30670.8
30701.0
30711.7
30730.0
30794.3
30816.7
30835.4
30847.3
30863.2
30883.8
30896.2
30915.5
30931.0
30950.5
30960.7
30984.1
31036.3
31061.8
31089.5
31112.7
31155.1
31252.7
31270.8
31288.2
31421.8
31449.9
31465.2
31496.8
31514.3
31549.8
31566.6
31573.2
31578.6
31607.2
31664.5
31670.4
31722.3
31732.3
31757.3
31819.0
31846.1
31917.6
31935.6
31963.6
31969.8
31981.7
31998.6
32042.7
32061.2
32070.6
32093.7
32107.9
32156.9
32172.6
32182.0
32197.0
32226.8
32246.0
32261.5
32314.6
32323.8
32364.8
32392.0
32404.9
32427.6
32440.2
32453.4
32471.4
32489.3
32502.9
32538.5
32571.7
32581.1
32619.8
32632.8
32666.6
32680.5
32704.0
32710.0
32718.7
32746.8
32750.9
32760.7
32779.3
32910.9
32940.4
32956.8
32983.2
32995.4
33004.2
33016.9
33049.5
33086.6
33097.3
33176.9
33182.3
33220.0
33233.7
33244.9
33250.5
33257.9
33272.9
33281.3
33290.8
33344.2
33383.9
33395.2
33403.1
33415.2
33422.8
33472.5
33509.7
33529.4
33544.1
33553.1
33580.2
33612.4
33618.1
33633.2
33655.6
33657.7
33675.6
33683.9
33692.7
33715.2
33727.8
33764.3
33768.1
33772.9
33800.0
33805.1
33818.0
33824.8
33833.2
33847.8
33850.6
33857.6
33861.6
33908.5
33916.3
33923.0
33944.4
33975.6
34034.2
34039.6
34045.0
34048.4
34057.2
34061.7
34069.3
34086.3
34103.7
34106.2
34109.3
34128.3
34153.6
34160.1
34167.1
34231.0
34239.0
34247.8
34256.8
34261.4
34264.3
34274.2
34281.7
34284.5
34289.9
34341.8
34357.7
34365.6
34372.9
34384.0
34395.8
34403.6
34408.2
34415.2
34429.4
34460.4
34464.5
34481.4
34490.8
34498.3
34513.7
34518.7
34527.4
34532.9
34541.2
34556.3
34619.2
34633.7
34642.7
34652.2
34661.0
34668.7
34680.6
34742.0
34756.3
34768.0
34774.8
34783.8
34797.8
34858.2
34878.4
34890.1
34899.6
34904.3
34927.5
34938.9
34944.9
34988.8
35002.2
35039.2
35095.9
35115.8
35272.5
35288.9
35311.9
35359.2
35388.9
35394.6
35398.3
35417.5
35426.7
35431.1
35438.2
35449.4
35478.8
35499.5
35539.7
35544.7
35551.0
35603.1
35647.4
35659.4
35665.0
35695.2
35716.4
35721.3
35739.9
35746.3
35761.6
35797.1
35813.4
35819.8
35847.7
35898.1
35922.5
35971.7
36006.3
36050.9
36066.7
36080.0
36136.8
36172.3
36256.4
36263.6
36277.7
36316.8
36345.8
36459.9
36465.7
36470.1
36476.1
36511.1
36675.4
36681.6
36719.7
36728.8
36739.0
36753.2
36757.6
36763.1
36783.2
36871.8
36876.4
36882.6
37093.5
37103.0
37137.1
37177.8
37303.0
37335.1
37345.2
37416.8
37505.3
37547.5
37586.7
37631.8
37658.2
37709.9
37745.1
37814.8
37898.9
37916.8
37942.2
37980.2
38045.2
38126.4
38137.3
38142.7
38171.6
38193.2
38339.7
38349.2
38368.5
38404.8
38433.2
38448.8
38457.6
38462.3
38467.3
38472.2
38510.1
38550.5
38561.6
38574.2
38582.9
38591.7
38608.0
38616.6
38625.6
38634.5
38643.3
38652.3
38661.4
38670.8
38680.1
38689.4
38699.2
38708.9
38718.7
38728.7
38738.7
38748.7
38758.9
38769.3
38779.7
38790.3
38800.9
38811.7
38822.6
38833.6
38844.7
38855.9
38867.2
38878.7
38890.2
38901.8
38913.5
38925.3
38937.3
38949.4
38961.7
38974.1
38986.4
38998.7
39004.3
39012.2
39018.8
39024.4
39037.0
39050.2
39063.2
39076.5
39089.9
39103.0
39116.9
39130.5
39144.3
39158.2
39172.2
39186.3
39200.5
39214.8
39229.3
39235.5
39243.8
39252.6
39258.5
39273.2
39288.2
39303.2
39318.3
39333.6
39349.0
39364.5
39380.1
39395.8
39411.7
39418.7
39427.4
39443.6
39459.8
39476.1
39492.5
39509.0
39517.4
39525.9
39543.1
39559.2
39576.2
39587.5
39593.2
39600.6
39610.6
39627.8
39634.0
39645.3
39657.5
39662.8
39669.2
39680.6
39692.9
39698.2
39704.6
39716.1
39728.1
39734.2
39740.6
39754.1
39763.3
39769.5
39775.5
39787.6
39795.7
39803.7
39816.1
39822.6
39834.5
39846.3
39858.2
39863.2
39869.9
39881.9
39893.8
39905.4
39917.1
39926.6
39940.5
39945.8
39951.1
39959.0
39976.0
39984.3
39995.6
40003.5
40015.3
40027.0
40038.4
40046.8
40050.3
40062.1
40073.9
40084.1
40090.7
40098.1
40105.5
40110.4
40117.3
40122.2
40129.1
40134.5
40140.8
40146.7
40152.7
40158.9
40164.2
40171.3
40183.7
40196.1
40208.6
40221.2
40233.7
40246.3
40258.9
40271.7
40284.5
40297.3
40310.2
40323.1
40336.0
40349.0
40356.9
40362.3
40375.1
40388.2
40401.4
40414.6
40419.8
40427.7
40441.1
40454.4
40467.8
40481.2
40494.7
40508.2
40521.7
40535.2
40542.7
40548.9
40556.2
40562.5
40569.6
40576.2
40583.1
40589.9
40596.6
40603.7
40610.4
40624.2
40631.3
40637.7
40645.2
40658.6
40673.0
40687.0
40701.0
40715.1
40729.2
40743.3
40757.5
40771.6
40778.1
40785.9
40800.2
40814.5
40828.9
40843.3
40857.8
40872.2
40886.8
40901.4
40916.0
40930.7
40945.5
40959.9
40975.0
40989.8
41004.7
41019.7
41025.8
41034.7
41049.6
41064.8
41073.7
41079.9
41095.1
41110.2
41125.4
41134.3
41141.1
41156.4
41159.8
41166.8
41172.1
41187.7
41218.2
41244.6
41266.4
41301.2
41330.2
41360.1
41812.4
41821.9
41832.0
41842.5
41853.5
