# units Angstrom
# wavelengths in IN VACUUM
# line list created from the ATRAN model with params WV=2mm, AM=1.5, R=5000
# to use for GNIRS M-band observations, 2000 <= R < 5000
44824.4
44853.8
44870.7
44934.7
44987.2
45020.0
45054.7
45073.5
45091.4
45109.0
45127.1
45145.3
45163.2
45182.2
45201.2
45220.1
45239.3
45258.7
45277.9
45297.2
45317.7
45337.4
45357.8
45378.4
45397.8
45418.4
45439.2
45458.8
45479.8
45501.3
45523.7
45546.1
45568.2
45589.8
45610.8
45632.2
45655.5
45675.5
45698.3
45698.3
45725.9
45768.5
45801.7
45841.1
45877.0
45909.5
45950.7
45979.2
45979.2
46024.7
46056.5
46100.2
46140.6
46176.9
46222.8
46256.7
46332.8
46369.7
46412.1
46456.2
46492.9
46571.6
46571.6
46609.8
46742.4
46789.5
46813.6
46912.5
46958.2
46999.8
47060.0
47087.6
47141.2
47177.9
47214.0
47281.6
47358.3
47451.9
47475.6
47544.5
47609.0
47639.4
47679.0
47734.4
47767.3
47806.7
47845.4
47879.9
47907.6
47950.5
47987.4
48030.9
48058.8
48210.8
48256.9
48294.8
48331.3
48367.2
48430.3
48476.2
48532.5
48585.1
48621.6
48657.7
48694.1
48730.8
48766.9
48803.4
48839.9
48864.0
48924.6
48987.0
49080.4
49130.6
49163.3
49202.6
49260.6
49341.5
49430.9
49582.9
49767.7
49808.1
49859.5
50027.0
50291.8
50390.5
50428.3
50485.6
50565.8
50602.3
50989.7
51029.4
51081.7
51118.8
51150.8
51252.4
51301.8
51569.2
51600.7
51621.9
51730.0
51831.0
51872.0
52230.6
52246.7
52286.7
52510.7
52559.4
52582.5
52615.1
52701.4
52837.7
53200.6
53200.6
53286.9
53680.4
53719.2
53769.8
53806.9
53871.8
53934.2
53984.0
54371.2
54430.7
54502.6
54861.2
55021.7
55064.4
55105.6
55318.8
55397.3
55915.0
55915.0
56645.2
