# units Angstrom
# wavelengths in IN VACUUM
# line list created from the ATRAN model with params WV=2mm, AM=1.5, R=5000
# to use for GNIRS L-band observations, 3000 <= R < 10000
28276.5
28416.6
28645.1
28668.4
28683.6
28776.9
28815.2
28843.4
28920.8
28935.8
29048.2
29145.6
29172.4
29299.3
29335.3
29394.1
29436.0
29474.9
29536.4
29632.4
29711.2
29745.2
29763.7
29800.3
29818.6
29839.7
29969.1
29988.3
30033.4
30078.9
30092.9
30133.7
30181.8
30223.9
30273.5
30300.5
30326.1
30370.2
30407.7
30487.0
30521.1
30546.5
30627.0
30643.9
30670.8
30700.9
30729.7
30816.7
30863.1
30896.2
30931.9
30960.4
30984.1
31036.3
31061.2
31089.5
31112.5
31155.0
31251.9
31271.0
31287.3
31396.4
31421.9
31465.1
31496.9
31549.4
31566.6
31669.5
31732.3
31756.6
31818.9
31845.0
31917.5
32024.3
32062.0
32093.6
32131.0
32181.8
32228.1
32245.9
32303.7
32404.8
32453.3
32471.3
32489.9
32604.2
32632.7
32680.5
32718.7
32762.8
32801.3
32910.9
32940.6
32956.7
33016.8
33049.5
33086.3
33219.8
33291.7
33344.2
33395.7
33422.5
33457.8
33509.7
33528.9
33553.2
33570.2
33613.3
33633.2
33656.6
33685.8
33715.5
33766.0
33802.7
33833.1
33849.6
33920.7
33944.4
33975.3
34042.7
34069.1
34088.3
34128.1
34164.8
34258.8
34287.8
34404.2
34461.8
34540.9
34556.3
34619.2
34661.1
34741.8
34756.1
34784.8
34858.3
34878.6
34891.1
34988.4
35002.1
35038.2
35115.8
35273.3
35312.1
35334.5
35357.7
35478.5
35600.6
35674.4
35695.0
35717.8
35739.8
35814.2
35875.4
35971.6
36006.3
36072.7
36120.7
36136.7
36172.4
36257.6
36276.4
36316.8
36345.8
36475.9
36511.3
36675.4
36739.1
36755.7
36872.5
37137.1
37177.8
37303.3
37345.1
37417.0
37505.0
37547.4
37658.0
37709.8
37745.1
37898.3
37916.8
37942.2
38044.6
38139.5
38171.8
38193.1
38349.8
38510.1
38560.3
38592.5
38626.1
38680.0
38689.6
38728.3
38748.5
38759.0
38779.7
38811.6
38822.6
38833.5
38844.7
38856.0
38867.1
38878.7
38890.3
38901.9
38913.1
38925.3
38937.1
38949.3
38961.6
38974.3
38999.7
39036.5
39050.1
39063.2
39076.5
39090.0
39103.4
39116.8
39130.6
39144.3
39158.3
39172.1
39186.3
39200.4
39214.8
39229.3
39243.8
39258.4
39273.1
39288.1
39303.2
39318.4
39333.7
39349.0
39364.5
39380.0
39395.7
39412.0
39427.1
39443.6
39459.7
39476.1
39492.5
39509.0
39526.2
39543.3
39559.2
39588.4
39610.8
39627.7
39645.3
39662.8
39681.2
39698.7
39716.0
39753.6
39816.0
40097.8
40221.4
40233.8
40246.4
40259.0
40271.7
40284.4
40297.3
40310.2
40323.4
40336.2
40362.3
40375.2
40388.3
40401.5
40415.2
40415.2
40427.9
40441.7
40454.5
40467.8
40481.3
40494.7
40508.2
40521.7
40535.3
40549.0
40562.6
40576.3
40658.2
40673.4
40687.4
40701.2
40715.2
40729.4
40743.5
40757.6
40771.8
40786.1
40800.5
40814.8
40829.3
40843.6
40858.0
40872.4
40887.3
40901.7
40916.1
40931.4
40959.5
40975.9
41004.7
